   start[kHz] stop[kHz] bw[kHz]
  1     80.00     82.31    2.31
  2     82.31     84.62    2.31
  3     84.62     86.94    2.31
  4     86.94     89.25    2.31
  5     89.25     91.56    2.31
  6     91.56     93.88    2.31
  7     93.88     96.19    2.31
  8     96.19     98.50    2.31
  9     98.50    100.81    2.31
 10    100.81    103.12    2.31
 11    103.12    105.44    2.31
 12    105.44    107.75    2.31
 13    107.75    110.06    2.31
 14    110.06    112.38    2.31
 15    112.38    114.69    2.31
 16    114.69    117.00    2.31
 17    117.00    119.31    2.31
 18    119.31    121.62    2.31
 19    121.62    123.94    2.31
 20    123.94    126.25    2.31
 21    126.25    128.56    2.31
 22    128.56    130.88    2.31
 23    130.88    133.19    2.31
 24    133.19    135.50    2.31
 25    135.50    137.81    2.31
 26    137.81    140.12    2.31
 27    140.12    142.44    2.31
 28    142.44    144.75    2.31
 29    144.75    147.06    2.31
 30    147.06    149.38    2.31
 31    149.38    151.69    2.31
 32    151.69    154.00    2.31
 33    154.00    156.31    2.31
 34    156.31    158.62    2.31
 35    158.62    160.94    2.31
 36    160.94    163.25    2.31
 37    163.25    165.56    2.31
 38    165.56    167.88    2.31
 39    167.88    170.19    2.31
 40    170.19    172.50    2.31
 41    172.50    174.81    2.31
 42    174.81    177.12    2.31
 43    177.12    179.44    2.31
 44    179.44    181.75    2.31
 45    181.75    184.06    2.31
 46    184.06    186.38    2.31
 47    186.38    188.69    2.31
 48    188.69    191.00    2.31
 49    191.00    193.31    2.31
 50    193.31    195.62    2.31
 51    195.62    197.94    2.31
 52    197.94    200.25    2.31
 53    200.25    202.56    2.31
 54    202.56    204.88    2.31
 55    204.88    207.19    2.31
 56    207.19    209.50    2.31
 57    209.50    211.81    2.31
 58    211.81    214.12    2.31
 59    214.12    216.44    2.31
 60    216.44    218.75    2.31
 61    218.75    221.06    2.31
 62    221.06    223.38    2.31
 63    223.38    225.69    2.31
 64    225.69    228.00    2.31
 65    228.00    230.31    2.31
 66    230.31    232.62    2.31
 67    232.62    234.94    2.31
 68    234.94    237.25    2.31
 69    237.25    239.56    2.31
 70    239.56    241.88    2.31
 71    241.88    244.19    2.31
 72    244.19    246.50    2.31
 73    246.50    248.81    2.31
 74    248.81    251.12    2.31
 75    251.12    253.44    2.31
 76    253.44    255.75    2.31
 77    255.75    258.06    2.31
 78    258.06    260.38    2.31
 79    260.38    262.69    2.31
 80    262.69    265.00    2.31
 81    265.00    267.31    2.31
 82    267.31    269.62    2.31
 83    269.62    271.94    2.31
 84    271.94    274.25    2.31
 85    274.25    276.56    2.31
 86    276.56    278.88    2.31
 87    278.88    281.19    2.31
 88    281.19    283.50    2.31
 89    283.50    285.81    2.31
 90    285.81    288.12    2.31
 91    288.12    290.44    2.31
 92    290.44    292.75    2.31
 93    292.75    295.06    2.31
 94    295.06    297.38    2.31
 95    297.38    299.69    2.31
 96    299.69    302.00    2.31
 97    302.00    304.31    2.31
 98    304.31    306.62    2.31
 99    306.62    308.94    2.31
100    308.94    311.25    2.31
101    311.25    313.56    2.31
102    313.56    315.88    2.31
103    315.88    318.19    2.31
104    318.19    320.50    2.31
105    320.50    322.81    2.31
106    322.81    325.12    2.31
107    325.12    327.44    2.31
108    327.44    329.75    2.31
109    329.75    332.06    2.31
110    332.06    334.38    2.31
111    334.38    336.69    2.31
112    336.69    339.00    2.31
113    339.00    341.31    2.31
114    341.31    343.62    2.31
115    343.62    345.94    2.31
116    345.94    348.25    2.31
117    348.25    350.56    2.31
118    350.56    352.88    2.31
119    352.88    355.19    2.31
120    355.19    357.50    2.31
121    357.50    359.81    2.31
122    359.81    362.12    2.31
123    362.12    364.44    2.31
124    364.44    366.75    2.31
125    366.75    369.06    2.31
126    369.06    371.38    2.31
127    371.38    373.69    2.31
128    373.69    376.00    2.31
129    376.00    378.31    2.31
130    378.31    380.62    2.31
131    380.62    382.94    2.31
132    382.94    385.25    2.31
133    385.25    387.56    2.31
134    387.56    389.88    2.31
135    389.88    392.19    2.31
136    392.19    394.50    2.31
137    394.50    396.81    2.31
138    396.81    399.12    2.31
139    399.12    401.44    2.31
140    401.44    403.75    2.31
141    403.75    406.06    2.31
142    406.06    408.38    2.31
143    408.38    410.69    2.31
144    410.69    413.00    2.31
145    413.00    415.31    2.31
146    415.31    417.62    2.31
147    417.62    419.94    2.31
148    419.94    422.25    2.31
149    422.25    424.56    2.31
150    424.56    426.88    2.31
151    426.88    429.19    2.31
152    429.19    431.50    2.31
153    431.50    433.81    2.31
154    433.81    436.12    2.31
155    436.12    438.44    2.31
156    438.44    440.75    2.31
157    440.75    443.06    2.31
158    443.06    445.38    2.31
159    445.38    447.69    2.31
160    447.69    450.00    2.31
161    450.00    452.31    2.31
162    452.31    454.62    2.31
163    454.62    456.94    2.31
164    456.94    459.25    2.31
165    459.25    461.56    2.31
166    461.56    463.88    2.31
167    463.88    466.19    2.31
168    466.19    468.50    2.31
169    468.50    470.81    2.31
170    470.81    473.12    2.31
171    473.12    475.44    2.31
172    475.44    477.75    2.31
173    477.75    480.06    2.31
174    480.06    482.38    2.31
175    482.38    484.69    2.31
176    484.69    487.00    2.31
177    487.00    489.31    2.31
178    489.31    491.62    2.31
179    491.62    493.94    2.31
180    493.94    496.25    2.31
181    496.25    498.56    2.31
182    498.56    500.88    2.31
183    500.88    503.19    2.31
184    503.19    505.50    2.31
185    505.50    507.81    2.31
186    507.81    510.12    2.31
187    510.12    512.44    2.31
188    512.44    514.75    2.31
189    514.75    517.06    2.31
190    517.06    519.38    2.31
191    519.38    521.69    2.31
192    521.69    524.00    2.31
193    524.00    526.31    2.31
194    526.31    528.62    2.31
195    528.62    530.94    2.31
196    530.94    533.25    2.31
197    533.25    535.56    2.31
198    535.56    537.88    2.31
199    537.88    540.19    2.31
200    540.19    542.50    2.31
201    542.50    544.81    2.31
202    544.81    547.12    2.31
203    547.12    549.44    2.31
204    549.44    551.75    2.31
205    551.75    554.06    2.31
206    554.06    556.38    2.31
207    556.38    558.69    2.31
208    558.69    561.00    2.31
209    561.00    563.31    2.31
210    563.31    565.62    2.31
211    565.62    567.94    2.31
212    567.94    570.25    2.31
213    570.25    572.56    2.31
214    572.56    574.88    2.31
215    574.88    577.19    2.31
216    577.19    579.50    2.31
217    579.50    581.81    2.31
218    581.81    584.12    2.31
219    584.12    586.44    2.31
220    586.44    588.75    2.31
221    588.75    591.06    2.31
222    591.06    593.38    2.31
223    593.38    595.69    2.31
224    595.69    598.00    2.31
225    598.00    600.31    2.31
226    600.31    602.62    2.31
227    602.62    604.94    2.31
228    604.94    607.25    2.31
229    607.25    609.56    2.31
230    609.56    611.88    2.31
231    611.88    614.19    2.31
232    614.19    616.50    2.31
233    616.50    618.81    2.31
234    618.81    621.12    2.31
235    621.12    623.44    2.31
236    623.44    625.75    2.31
237    625.75    628.06    2.31
238    628.06    630.38    2.31
239    630.38    632.69    2.31
240    632.69    635.00    2.31
241    635.00    637.31    2.31
242    637.31    639.62    2.31
243    639.62    641.94    2.31
244    641.94    644.25    2.31
245    644.25    646.56    2.31
246    646.56    648.88    2.31
247    648.88    651.19    2.31
248    651.19    653.50    2.31
249    653.50    655.81    2.31
250    655.81    658.12    2.31
251    658.12    660.44    2.31
252    660.44    662.75    2.31
253    662.75    665.06    2.31
254    665.06    667.38    2.31
255    667.38    669.69    2.31
256    669.69    672.00    2.31
257    672.00    674.31    2.31
258    674.31    676.62    2.31
259    676.62    678.94    2.31
260    678.94    681.25    2.31
261    681.25    683.56    2.31
262    683.56    685.88    2.31
263    685.88    688.19    2.31
264    688.19    690.50    2.31
265    690.50    692.81    2.31
266    692.81    695.12    2.31
267    695.12    697.44    2.31
268    697.44    699.75    2.31
269    699.75    702.06    2.31
270    702.06    704.38    2.31
271    704.38    706.69    2.31
272    706.69    709.00    2.31
273    709.00    711.31    2.31
274    711.31    713.62    2.31
275    713.62    715.94    2.31
276    715.94    718.25    2.31
277    718.25    720.56    2.31
278    720.56    722.88    2.31
279    722.88    725.19    2.31
280    725.19    727.50    2.31
281    727.50    729.81    2.31
282    729.81    732.12    2.31
283    732.12    734.44    2.31
284    734.44    736.75    2.31
285    736.75    739.06    2.31
286    739.06    741.38    2.31
287    741.38    743.69    2.31
288    743.69    746.00    2.31
289    746.00    748.31    2.31
290    748.31    750.62    2.31
291    750.62    752.94    2.31
292    752.94    755.25    2.31
293    755.25    757.56    2.31
294    757.56    759.88    2.31
295    759.88    762.19    2.31
296    762.19    764.50    2.31
297    764.50    766.81    2.31
298    766.81    769.12    2.31
299    769.12    771.44    2.31
300    771.44    773.75    2.31
301    773.75    776.06    2.31
302    776.06    778.38    2.31
303    778.38    780.69    2.31
304    780.69    783.00    2.31
305    783.00    785.31    2.31
306    785.31    787.62    2.31
307    787.62    789.94    2.31
308    789.94    792.25    2.31
309    792.25    794.56    2.31
310    794.56    796.88    2.31
311    796.88    799.19    2.31
312    799.19    801.50    2.31
313    801.50    803.81    2.31
314    803.81    806.12    2.31
315    806.12    808.44    2.31
316    808.44    810.75    2.31
317    810.75    813.06    2.31
318    813.06    815.38    2.31
319    815.38    817.69    2.31
320    817.69    820.00    2.31
321    820.00    822.31    2.31
322    822.31    824.62    2.31
323    824.62    826.94    2.31
324    826.94    829.25    2.31
325    829.25    831.56    2.31
326    831.56    833.88    2.31
327    833.88    836.19    2.31
328    836.19    838.50    2.31
329    838.50    840.81    2.31
330    840.81    843.12    2.31
331    843.12    845.44    2.31
332    845.44    847.75    2.31
333    847.75    850.06    2.31
334    850.06    852.38    2.31
335    852.38    854.69    2.31
336    854.69    857.00    2.31
337    857.00    859.31    2.31
338    859.31    861.62    2.31
339    861.62    863.94    2.31
340    863.94    866.25    2.31
341    866.25    868.56    2.31
342    868.56    870.88    2.31
343    870.88    873.19    2.31
344    873.19    875.50    2.31
345    875.50    877.81    2.31
346    877.81    880.12    2.31
347    880.12    882.44    2.31
348    882.44    884.75    2.31
349    884.75    887.06    2.31
350    887.06    889.38    2.31
351    889.38    891.69    2.31
352    891.69    894.00    2.31
353    894.00    896.31    2.31
354    896.31    898.62    2.31
355    898.62    900.94    2.31
356    900.94    903.25    2.31
357    903.25    905.56    2.31
358    905.56    907.88    2.31
359    907.88    910.19    2.31
360    910.19    912.50    2.31
361    912.50    914.81    2.31
362    914.81    917.12    2.31
363    917.12    919.44    2.31
364    919.44    921.75    2.31
365    921.75    924.06    2.31
366    924.06    926.38    2.31
367    926.38    928.69    2.31
368    928.69    931.00    2.31
369    931.00    933.31    2.31
370    933.31    935.62    2.31
371    935.62    937.94    2.31
372    937.94    940.25    2.31
373    940.25    942.56    2.31
374    942.56    944.88    2.31
375    944.88    947.19    2.31
376    947.19    949.50    2.31
377    949.50    951.81    2.31
378    951.81    954.12    2.31
379    954.12    956.44    2.31
380    956.44    958.75    2.31
381    958.75    961.06    2.31
382    961.06    963.38    2.31
383    963.38    965.69    2.31
384    965.69    968.00    2.31
385    968.00    970.31    2.31
386    970.31    972.62    2.31
387    972.62    974.94    2.31
388    974.94    977.25    2.31
389    977.25    979.56    2.31
390    979.56    981.88    2.31
391    981.88    984.19    2.31
392    984.19    986.50    2.31
393    986.50    988.81    2.31
394    988.81    991.12    2.31
395    991.12    993.44    2.31
396    993.44    995.75    2.31
397    995.75    998.06    2.31
398    998.06   1000.38    2.31
399   1000.38   1002.69    2.31
400   1002.69   1005.00    2.31
401   1005.00   1007.31    2.31
402   1007.31   1009.62    2.31
403   1009.62   1011.94    2.31
404   1011.94   1014.25    2.31
405   1014.25   1016.56    2.31
406   1016.56   1018.88    2.31
407   1018.88   1021.19    2.31
408   1021.19   1023.50    2.31
409   1023.50   1025.81    2.31
410   1025.81   1028.12    2.31
411   1028.12   1030.44    2.31
412   1030.44   1032.75    2.31
413   1032.75   1035.06    2.31
414   1035.06   1037.38    2.31
415   1037.38   1039.69    2.31
416   1039.69   1042.00    2.31
417   1042.00   1044.31    2.31
418   1044.31   1046.62    2.31
419   1046.62   1048.94    2.31
420   1048.94   1051.25    2.31
421   1051.25   1053.56    2.31
422   1053.56   1055.88    2.31
423   1055.88   1058.19    2.31
424   1058.19   1060.50    2.31
425   1060.50   1062.81    2.31
426   1062.81   1065.12    2.31
427   1065.12   1067.44    2.31
428   1067.44   1069.75    2.31
429   1069.75   1072.06    2.31
430   1072.06   1074.38    2.31
431   1074.38   1076.69    2.31
432   1076.69   1079.00    2.31
433   1079.00   1081.31    2.31
434   1081.31   1083.62    2.31
435   1083.62   1085.94    2.31
436   1085.94   1088.25    2.31
437   1088.25   1090.56    2.31
438   1090.56   1092.88    2.31
439   1092.88   1095.19    2.31
440   1095.19   1097.50    2.31
441   1097.50   1099.81    2.31
442   1099.81   1102.12    2.31
443   1102.12   1104.44    2.31
444   1104.44   1106.75    2.31
445   1106.75   1109.06    2.31
446   1109.06   1111.38    2.31
447   1111.38   1113.69    2.31
448   1113.69   1116.00    2.31
449   1116.00   1118.31    2.31
450   1118.31   1120.62    2.31
451   1120.62   1122.94    2.31
452   1122.94   1125.25    2.31
453   1125.25   1127.56    2.31
454   1127.56   1129.88    2.31
455   1129.88   1132.19    2.31
456   1132.19   1134.50    2.31
457   1134.50   1136.81    2.31
458   1136.81   1139.12    2.31
459   1139.12   1141.44    2.31
460   1141.44   1143.75    2.31
461   1143.75   1146.06    2.31
462   1146.06   1148.38    2.31
463   1148.38   1150.69    2.31
464   1150.69   1153.00    2.31
465   1153.00   1155.31    2.31
466   1155.31   1157.62    2.31
467   1157.62   1159.94    2.31
468   1159.94   1162.25    2.31
469   1162.25   1164.56    2.31
470   1164.56   1166.88    2.31
471   1166.88   1169.19    2.31
472   1169.19   1171.50    2.31
473   1171.50   1173.81    2.31
474   1173.81   1176.12    2.31
475   1176.12   1178.44    2.31
476   1178.44   1180.75    2.31
477   1180.75   1183.06    2.31
478   1183.06   1185.38    2.31
479   1185.38   1187.69    2.31
480   1187.69   1190.00    2.31
481   1190.00   1192.31    2.31
482   1192.31   1194.62    2.31
483   1194.62   1196.94    2.31
484   1196.94   1199.25    2.31
485   1199.25   1201.56    2.31
486   1201.56   1203.88    2.31
487   1203.88   1206.19    2.31
488   1206.19   1208.50    2.31
489   1208.50   1210.81    2.31
490   1210.81   1213.12    2.31
491   1213.12   1215.44    2.31
492   1215.44   1217.75    2.31
493   1217.75   1220.06    2.31
494   1220.06   1222.38    2.31
495   1222.38   1224.69    2.31
496   1224.69   1227.00    2.31
497   1227.00   1229.31    2.31
498   1229.31   1231.62    2.31
499   1231.62   1233.94    2.31
500   1233.94   1236.25    2.31
501   1236.25   1238.56    2.31
502   1238.56   1240.88    2.31
503   1240.88   1243.19    2.31
504   1243.19   1245.50    2.31
505   1245.50   1247.81    2.31
506   1247.81   1250.12    2.31
507   1250.12   1252.44    2.31
508   1252.44   1254.75    2.31
509   1254.75   1257.06    2.31
510   1257.06   1259.38    2.31
511   1259.38   1261.69    2.31
512   1261.69   1264.00    2.31
513   1264.00   1266.31    2.31
514   1266.31   1268.62    2.31
515   1268.62   1270.94    2.31
516   1270.94   1273.25    2.31
517   1273.25   1275.56    2.31
518   1275.56   1277.88    2.31
519   1277.88   1280.19    2.31
520   1280.19   1282.50    2.31
521   1282.50   1284.81    2.31
522   1284.81   1287.12    2.31
523   1287.12   1289.44    2.31
524   1289.44   1291.75    2.31
525   1291.75   1294.06    2.31
526   1294.06   1296.38    2.31
527   1296.38   1298.69    2.31
528   1298.69   1301.00    2.31
529   1301.00   1303.31    2.31
530   1303.31   1305.62    2.31
531   1305.62   1307.94    2.31
532   1307.94   1310.25    2.31
533   1310.25   1312.56    2.31
534   1312.56   1314.88    2.31
535   1314.88   1317.19    2.31
536   1317.19   1319.50    2.31
537   1319.50   1321.81    2.31
538   1321.81   1324.12    2.31
539   1324.12   1326.44    2.31
540   1326.44   1328.75    2.31
541   1328.75   1331.06    2.31
542   1331.06   1333.38    2.31
543   1333.38   1335.69    2.31
544   1335.69   1338.00    2.31
545   1338.00   1340.31    2.31
546   1340.31   1342.62    2.31
547   1342.62   1344.94    2.31
548   1344.94   1347.25    2.31
549   1347.25   1349.56    2.31
550   1349.56   1351.88    2.31
551   1351.88   1354.19    2.31
552   1354.19   1356.50    2.31
553   1356.50   1358.81    2.31
554   1358.81   1361.12    2.31
555   1361.12   1363.44    2.31
556   1363.44   1365.75    2.31
557   1365.75   1368.06    2.31
558   1368.06   1370.38    2.31
559   1370.38   1372.69    2.31
560   1372.69   1375.00    2.31
561   1375.00   1377.31    2.31
562   1377.31   1379.62    2.31
563   1379.62   1381.94    2.31
564   1381.94   1384.25    2.31
565   1384.25   1386.56    2.31
566   1386.56   1388.88    2.31
567   1388.88   1391.19    2.31
568   1391.19   1393.50    2.31
569   1393.50   1395.81    2.31
570   1395.81   1398.12    2.31
571   1398.12   1400.44    2.31
572   1400.44   1402.75    2.31
573   1402.75   1405.06    2.31
574   1405.06   1407.38    2.31
575   1407.38   1409.69    2.31
576   1409.69   1412.00    2.31
577   1412.00   1414.31    2.31
578   1414.31   1416.62    2.31
579   1416.62   1418.94    2.31
580   1418.94   1421.25    2.31
581   1421.25   1423.56    2.31
582   1423.56   1425.88    2.31
583   1425.88   1428.19    2.31
584   1428.19   1430.50    2.31
585   1430.50   1432.81    2.31
586   1432.81   1435.12    2.31
587   1435.12   1437.44    2.31
588   1437.44   1439.75    2.31
589   1439.75   1442.06    2.31
590   1442.06   1444.38    2.31
591   1444.38   1446.69    2.31
592   1446.69   1449.00    2.31
593   1449.00   1451.31    2.31
594   1451.31   1453.62    2.31
595   1453.62   1455.94    2.31
596   1455.94   1458.25    2.31
597   1458.25   1460.56    2.31
598   1460.56   1462.88    2.31
599   1462.88   1465.19    2.31
600   1465.19   1467.50    2.31
601   1467.50   1469.81    2.31
602   1469.81   1472.12    2.31
603   1472.12   1474.44    2.31
604   1474.44   1476.75    2.31
605   1476.75   1479.06    2.31
606   1479.06   1481.38    2.31
607   1481.38   1483.69    2.31
608   1483.69   1486.00    2.31
609   1486.00   1488.31    2.31
610   1488.31   1490.62    2.31
611   1490.62   1492.94    2.31
612   1492.94   1495.25    2.31
613   1495.25   1497.56    2.31
614   1497.56   1499.88    2.31
615   1499.88   1502.19    2.31
616   1502.19   1504.50    2.31
617   1504.50   1506.81    2.31
618   1506.81   1509.12    2.31
619   1509.12   1511.44    2.31
620   1511.44   1513.75    2.31
621   1513.75   1516.06    2.31
622   1516.06   1518.38    2.31
623   1518.38   1520.69    2.31
624   1520.69   1523.00    2.31
